Time(Sec), LO(m), AO(deg)
1.0000000000,0.0000000000,0.0000000000
2.0000000000,0.0000000000,134.2154636017
3.0000000000,0.0000000000,24.5544334611
4.0000000000,0.0000000000,-152.1456440216
5.0000000000,0.0000000000,73.6257957026
6.0000000000,0.0000000000,-116.1692157899
7.0000000000,0.0000000000,148.6056646744
8.0000000000,0.0000000000,-1.9546725568
9.0000000000,0.0000000000,-70.0166950230
10.0000000000,0.0000000000,53.7599167654
11.0000000000,0.0000000000,123.0762897715
12.0000000000,0.0000000000,163.2078309872
13.0000000000,0.0000000000,142.3165530212
14.0000000000,0.0000000000,-21.3321998955
15.0000000000,0.0000000000,127.2897131618
16.0000000000,0.0000000000,154.9053757180
17.0000000000,0.0000000000,-106.2835570083
18.0000000000,0.0000000000,-156.4763712348
19.0000000000,0.0000000000,-109.8240900698
20.0000000000,0.0000000000,91.7312208029
21.0000000000,0.0000000000,-3.3543038132
22.0000000000,0.0000000000,143.7374194378
23.0000000000,0.0000000000,-161.2611367497
24.0000000000,0.0000000000,138.3990707809
25.0000000000,0.0000000000,-54.5491880972
26.0000000000,0.0000000000,-2.8857254424
27.0000000000,0.0000000000,51.7464934660
28.0000000000,-0.1275505712,-4.2774784774
29.0000000000,-0.1226956233,-0.9744691450
30.0000000000,-0.0736723964,-8.0282937336
31.0000000000,-0.0515447911,-3.0105524750
32.0000000000,-0.0320241954,-3.5818924102
33.0000000000,-0.0336231800,0.2880177772
34.0000000000,-0.0421745424,1.6686632624
35.0000000000,-0.0374266820,0.8320706430
36.0000000000,-0.0557350856,3.4550261347
37.0000000000,-0.0627168625,1.2939476918
38.0000000000,-0.0596315768,-0.4762160091
39.0000000000,-0.0477729626,-1.1094110497
40.0000000000,-0.0383765123,-1.3858826244
41.0000000000,-0.0253060786,-1.9739569459
42.0000000000,-0.0271340487,-2.4818914769
43.0000000000,-0.0072191015,-3.1106245829
44.0000000000,0.0126673775,-2.9387452263
45.0000000000,0.0328353387,-2.5856352250
46.0000000000,0.0272789545,0.8740138397
47.0000000000,0.0405276905,-1.9967737972
48.0000000000,0.0487185394,-1.2623905243
49.0000000000,0.0727314303,-2.5748593028
50.0000000000,0.0658244527,1.0553472693
51.0000000000,0.0668079537,-0.1496405298
52.0000000000,0.0730004433,-1.2084409109
53.0000000000,0.0511890331,3.4068954695
54.0000000000,0.0279228151,3.7879439955
55.0000000000,0.0233134850,0.7070022749
56.0000000000,0.0183211852,0.9029599347
57.0000000000,0.0228391519,-0.6951184304
58.0000000000,0.0021594570,3.3569758048
59.0000000000,-0.0010084722,0.5124547220
60.0000000000,-0.0005117623,-0.0740924963
61.0000000000,-0.0186132856,2.8593106849
62.0000000000,-0.0186889461,0.2114375123
63.0000000000,-0.0127191110,-0.9188701665
64.0000000000,-0.0223465458,1.5839986786
65.0000000000,-0.0242674318,-0.7064454174
66.0000000000,-0.0094377000,-2.2074605165
67.0000000000,-0.0033840322,-0.9359684324
68.0000000000,-0.0065115864,0.5072547682
69.0000000000,-0.0098596797,1.0399646339
70.0000000000,-0.0062681402,-0.5645879433
71.0000000000,-0.0300579881,3.9919823636
72.0000000000,-0.0298099177,0.3061793843
73.0000000000,-0.0320989271,0.3537535408
74.0000000000,-0.0184795684,-2.0420977155
75.0000000000,-0.0377710169,1.6721039501
76.0000000000,-0.0321115045,-0.8586366239
77.0000000000,-0.0118749869,-2.8994390551
78.0000000000,0.0171873989,-3.4200287542
79.0000000000,0.0302406067,-1.8635547259
80.0000000000,0.0417228539,-1.7298095563
81.0000000000,0.0588356383,-2.4638913904
82.0000000000,0.0411983133,0.9013704125
83.0000000000,0.0438999076,-0.3547837853
84.0000000000,0.0420222776,0.2372250641
85.0000000000,-0.0180137901,3.2469428037
86.0000000000,0.0414282578,0.1048048466
87.0000000000,0.0475310858,-0.8121616750
88.0000000000,0.0261944031,2.7930632513
89.0000000000,-0.0086363739,0.2354257733
90.0000000000,-0.0021759535,0.8517058088
91.0000000000,-0.0054656595,-0.4649808001
92.0000000000,0.0249288844,-1.4546063649
93.0000000000,0.0019200819,3.3355372358
94.0000000000,0.0064800899,-0.6035880978
95.0000000000,0.0177093679,-1.2393935948
96.0000000000,0.0217195433,-0.5259560418
97.0000000000,0.0105417797,1.4279284080
98.0000000000,-0.0175809088,3.5054358590
99.0000000000,0.0063597476,-3.0699556725
100.0000000000,0.0309468345,-3.0886076751
101.0000000000,0.0467602054,-2.0276458762
102.0000000000,-0.0102806503,1.9894414768
103.0000000000,-0.0181711128,-0.9894646994
104.0000000000,0.0254687905,-0.9917338386
105.0000000000,0.0478585427,0.6128582974
106.0000000000,0.0417725002,0.7531210678
107.0000000000,0.0229531400,2.4670969750
108.0000000000,0.0049287402,1.3641913484
109.0000000000,0.0149383706,2.6053651442
110.0000000000,0.0032734797,-1.4410495919
111.0000000000,0.0005262446,-0.3548124171
112.0000000000,-0.0070827299,-1.1121018820
113.0000000000,-0.0091748456,-2.0644328873
114.0000000000,-0.0043067170,1.7999898459
115.0000000000,0.0055911710,1.1811762588
116.0000000000,0.0034371010,-1.1594474780
117.0000000000,0.0103292016,-0.8466805709
118.0000000000,0.0103757257,-0.5836006505
119.0000000000,0.0195924367,-1.1915599410
120.0000000000,0.0221419941,-0.3342331862
121.0000000000,0.0358764253,-1.2735468708
122.0000000000,0.0589218897,-2.8803784536
123.0000000000,0.0640540840,-0.4104322733
124.0000000000,0.0684432304,-0.5634869768
125.0000000000,0.0644484921,0.5197846336
126.0000000000,0.0620743421,0.3000528075
127.0000000000,0.0344787747,6.0219676220
128.0000000000,0.0299906095,0.5532521471
129.0000000000,0.0133867206,2.0679378436
130.0000000000,0.0136874726,-0.2497046817
131.0000000000,0.0245434547,-1.3003466270
132.0000000000,0.0152504270,-0.7219376239
133.0000000000,0.0232402941,-1.0272561244
134.0000000000,0.0245745958,-0.1651361211
135.0000000000,0.0397615400,-0.4214387802
136.0000000000,0.0585211017,-2.2521616233
137.0000000000,0.0679060909,-1.1655507419
138.0000000000,0.0541160402,0.3632920919
139.0000000000,0.0486307252,0.6926800223
140.0000000000,0.0584768476,0.9738092712
141.0000000000,0.0280265809,3.8505814632
142.0000000000,0.0004054672,3.4797511269
143.0000000000,0.0137118393,1.7101734160
144.0000000000,-0.0286998393,0.1073179979
145.0000000000,-0.0356329198,0.8502683063
146.0000000000,-0.0181109851,-0.4211347214
147.0000000000,-0.0174616253,-0.0793947644
148.0000000000,-0.0212391709,0.4673806338
149.0000000000,-0.0245018088,0.9135049699
150.0000000000,0.0115700827,-1.6366837128
151.0000000000,-0.0185801657,0.8868609325
152.0000000000,-0.0029330165,-3.5787799756
153.0000000000,-0.0063385062,0.4490946980
154.0000000000,0.0039311470,0.9668122990
155.0000000000,0.0017617981,0.7121389203
156.0000000000,0.0013145678,-0.0525910810
157.0000000000,-0.0005145204,-0.6873116995
158.0000000000,-0.0008872793,0.1677643056
159.0000000000,-0.0021287253,1.0522579114
160.0000000000,-0.0297154260,3.4493284594
161.0000000000,-0.0490499706,2.3608933401
162.0000000000,-0.0426599341,-0.6550155212
163.0000000000,-0.0856673743,5.7944887647
164.0000000000,-0.0768210022,-3.0218959632
165.0000000000,-0.0747764774,-0.2489237880
166.0000000000,-0.0591806529,-1.8639146976
167.0000000000,0.0215631969,-3.2429427138
168.0000000000,0.0101850866,-3.9366452814
169.0000000000,0.0182804243,-1.0551411924
170.0000000000,-0.0180309102,-3.0967739289
171.0000000000,0.0395262630,-2.6056888981
172.0000000000,0.0811202204,-0.5983230941
173.0000000000,0.0759936721,0.6657902675
174.0000000000,0.0902816130,-1.7491219996
175.0000000000,0.0850847503,-0.5180092322
176.0000000000,0.0702655016,1.8362643667
177.0000000000,0.0703620870,1.2499194962
178.0000000000,0.0671252167,0.4213286775
179.0000000000,0.0462733332,1.8921550204
180.0000000000,0.0483578765,-0.2672021024
181.0000000000,0.0412274653,0.8991443354
182.0000000000,0.0199328034,1.6753167787
183.0000000000,0.0193136365,0.0778157695
184.0000000000,0.0162771704,0.3897006264
185.0000000000,0.0330682279,-1.8118664744
186.0000000000,0.0488534986,-2.0604411977
187.0000000000,0.0513634461,-0.9635981945
188.0000000000,0.0540856199,-0.3460950040
189.0000000000,0.0611604616,-0.9134658074
190.0000000000,0.0600902023,2.3098302948
191.0000000000,0.0315839986,3.7499091630
192.0000000000,-0.0043099910,3.7080217107
193.0000000000,0.0127958569,2.5428554281
194.0000000000,-0.0583218442,6.3562963579
195.0000000000,-0.0269228064,-3.7920018558
196.0000000000,-0.0505438371,0.4145591463
197.0000000000,-0.0343160814,-2.0145275800
198.0000000000,-0.0283799246,-0.7595017532
199.0000000000,-0.0149822376,0.3890794588
200.0000000000,-0.0251576006,1.3248397366
201.0000000000,-0.0155863377,-3.0167059268
202.0000000000,0.0173327552,-4.2013499287
203.0000000000,0.0363925936,-2.4531794445
204.0000000000,0.0486275044,-2.5071830398
205.0000000000,0.0718520996,-3.1350234385
206.0000000000,0.0702235723,3.1951032618
207.0000000000,0.0691015995,0.1469844835
208.0000000000,0.0593250442,1.2045819112
209.0000000000,0.0661152549,0.9857945918
210.0000000000,0.0532739939,1.6769857311
211.0000000000,0.0631164216,-2.4325982523
212.0000000000,0.0659425237,-0.4113012758
213.0000000000,0.0000000000,46.7714932914
214.0000000000,0.0000000000,49.7116629043
215.0000000000,0.0000000000,45.7837268982
216.0000000000,0.0000000000,43.2254197741
217.0000000000,0.0000000000,62.3188683933
218.0000000000,0.0000000000,-129.9768018886
219.0000000000,0.0000000000,59.5626238017
220.0000000000,0.0000000000,-138.6013850450
221.0000000000,0.0000000000,121.8252677058
222.0000000000,0.0000000000,30.3038053662
223.0000000000,0.0000000000,-47.8127718208
